WL(nm)	PL	PE(mW/nm)
380	0.0038	2.4731
381	0.0033	2.1310
382	0.0030	1.9834
383	0.0027	1.7401
384	0.0025	1.6287
385	0.0023	1.5110
386	0.0021	1.3685
387	0.0020	1.2857
388	0.0020	1.3023
389	0.0018	1.1740
390	0.0017	1.0870
391	0.0016	1.0678
392	0.0016	1.0476
393	0.0016	1.0294
394	0.0015	0.9537
395	0.0014	0.9264
396	0.0014	0.9022
397	0.0013	0.8780
398	0.0014	0.8994
399	0.0014	0.8840
400	0.0014	0.9140
401	0.0015	0.9590
402	0.0016	1.0147
403	0.0017	1.0895
404	0.0019	1.2325
405	0.0020	1.2815
406	0.0022	1.4441
407	0.0025	1.6507
408	0.0029	1.8619
409	0.0033	2.1421
410	0.0040	2.5870
411	0.0046	2.9970
412	0.0055	3.5554
413	0.0064	4.1534
414	0.0077	5.0149
415	0.0090	5.8514
416	0.0107	6.9488
417	0.0127	8.2898
418	0.0151	9.8167
419	0.0184	11.9628
420	0.0214	13.9602
421	0.0257	16.7430
422	0.0300	19.5083
423	0.0359	23.4013
424	0.0422	27.4937
425	0.0499	32.5134
426	0.0580	37.7573
427	0.0676	43.9921
428	0.0785	51.0786
429	0.0919	59.8494
430	0.1071	69.7318
431	0.1241	80.7895
432	0.1421	92.5435
433	0.1620	105.4513
434	0.1865	121.4058
435	0.2129	138.6188
436	0.2394	155.8641
437	0.2695	175.4324
438	0.3032	197.3957
439	0.3445	224.2843
440	0.3844	250.2807
441	0.4416	287.4745
442	0.4912	319.8039
443	0.5516	359.0885
444	0.6192	403.1483
445	0.6878	447.7958
446	0.7515	489.2445
447	0.8189	533.1688
448	0.8776	571.3906
449	0.9335	607.7420
450	0.9758	635.3114
451	0.9926	646.2313
452	1.0000	651.0463
453	0.9944	647.3921
454	0.9440	614.5724
455	0.8868	577.3189
456	0.8286	539.4380
457	0.7610	495.4499
458	0.6967	453.5701
459	0.6306	410.5582
460	0.5720	372.3983
461	0.5228	340.3850
462	0.4771	310.5883
463	0.4419	287.6735
464	0.4009	260.9949
465	0.3719	242.1050
466	0.3422	222.7637
467	0.3144	204.7194
468	0.2893	188.3233
469	0.2635	171.5443
470	0.2359	153.5543
471	0.2118	137.8890
472	0.1911	124.4151
473	0.1703	110.8883
474	0.1519	98.8836
475	0.1362	88.6456
476	0.1227	79.8923
477	0.1114	72.5080
478	0.1003	65.2988
479	0.0913	59.4250
480	0.0843	54.9072
481	0.0777	50.5630
482	0.0725	47.2067
483	0.0670	43.6334
484	0.0631	41.0938
485	0.0586	38.1283
486	0.0556	36.1856
487	0.0531	34.5494
488	0.0506	32.9519
489	0.0483	31.4226
490	0.0472	30.7446
491	0.0459	29.8710
492	0.0457	29.7553
493	0.0458	29.8278
494	0.0467	30.4017
495	0.0481	31.2876
496	0.0498	32.4394
497	0.0517	33.6322
498	0.0547	35.5834
499	0.0580	37.7562
500	0.0620	40.3840
501	0.0659	42.9196
502	0.0713	46.4496
503	0.0764	49.7429
504	0.0837	54.4614
505	0.0906	59.0023
506	0.0980	63.8085
507	0.1067	69.4369
508	0.1154	75.1484
509	0.1262	82.1370
510	0.1371	89.2545
511	0.1482	96.4736
512	0.1590	103.5362
513	0.1723	112.1755
514	0.1848	120.2977
515	0.1950	126.9553
516	0.2074	134.9984
517	0.2197	143.0544
518	0.2299	149.7064
519	0.2409	156.8071
520	0.2493	162.2908
521	0.2554	166.3013
522	0.2617	170.3484
523	0.2637	171.6817
524	0.2696	175.4914
525	0.2685	174.8099
526	0.2675	174.1309
527	0.2611	170.0192
528	0.2575	167.6164
529	0.2517	163.8430
530	0.2431	158.2696
531	0.2355	153.2994
532	0.2274	148.0537
533	0.2172	141.4135
534	0.2080	135.4026
535	0.1981	128.9701
536	0.1879	122.3621
537	0.1807	117.6207
538	0.1728	112.5205
539	0.1627	105.8932
540	0.1545	100.5753
541	0.1476	96.0933
542	0.1385	90.1534
543	0.1313	85.5048
544	0.1243	80.9167
545	0.1196	77.8375
546	0.1125	73.2169
547	0.1066	69.4157
548	0.1009	65.6731
549	0.0944	61.4447
550	0.0895	58.2550
551	0.0842	54.8429
552	0.0785	51.1067
553	0.0740	48.1735
554	0.0693	45.1013
555	0.0653	42.4818
556	0.0611	39.8077
557	0.0571	37.1561
558	0.0536	34.9200
559	0.0508	33.0442
560	0.0452	29.4290
561	0.0423	27.5309
562	0.0399	25.9748
563	0.0374	24.3478
564	0.0353	22.9763
565	0.0328	21.3821
566	0.0313	20.3727
567	0.0293	19.0464
568	0.0278	18.1010
569	0.0261	16.9667
570	0.0244	15.9155
571	0.0230	14.9722
572	0.0219	14.2323
573	0.0206	13.4332
574	0.0195	12.7186
575	0.0184	11.9771
576	0.0175	11.3666
577	0.0166	10.8291
578	0.0159	10.3204
579	0.0151	9.8371
580	0.0145	9.4136
581	0.0138	8.9569
582	0.0132	8.6238
583	0.0129	8.3859
584	0.0126	8.1990
585	0.0123	8.0128
586	0.0122	7.9274
587	0.0119	7.7659
588	0.0121	7.8795
589	0.0121	7.9097
590	0.0122	7.9649
591	0.0125	8.1642
592	0.0129	8.4213
593	0.0134	8.7018
594	0.0138	8.9996
595	0.0145	9.4190
596	0.0152	9.9029
597	0.0161	10.4565
598	0.0172	11.1756
599	0.0185	12.0317
600	0.0197	12.8494
601	0.0212	13.8043
602	0.0230	14.9489
603	0.0247	16.0903
604	0.0269	17.4981
605	0.0294	19.1390
606	0.0317	20.6567
607	0.0348	22.6500
608	0.0379	24.6533
609	0.0414	26.9692
610	0.0458	29.7930
611	0.0499	32.4761
612	0.0544	35.3909
613	0.0597	38.8696
614	0.0648	42.1787
615	0.0711	46.2935
616	0.0776	50.5265
617	0.0845	54.9846
618	0.0931	60.5901
619	0.1027	66.8549
620	0.1125	73.2133
621	0.1232	80.1937
622	0.1349	87.8003
623	0.1478	96.1959
624	0.1622	105.6246
625	0.1765	114.9091
626	0.1931	125.7128
627	0.2082	135.5196
628	0.2265	147.4392
629	0.2463	160.3549
630	0.2706	176.1649
631	0.2891	188.2341
632	0.3151	205.1238
633	0.3382	220.2069
634	0.3639	236.8860
635	0.3905	254.2207
636	0.4166	271.1997
637	0.4461	290.3996
638	0.4661	303.4825
639	0.4934	321.2355
640	0.5096	331.7611
641	0.5154	335.5776
642	0.5110	332.6896
643	0.4993	325.0523
644	0.4789	311.8093
645	0.4456	290.1116
646	0.4000	260.4312
647	0.3597	234.1823
648	0.3127	203.6042
649	0.2696	175.5025
650	0.2278	148.3324
651	0.1917	124.8139
652	0.1597	103.9904
653	0.1339	87.1716
654	0.1121	72.9901
655	0.0932	60.6878
656	0.0784	51.0726
657	0.0653	42.5002
658	0.0542	35.3119
659	0.0456	29.6647
660	0.0360	23.4188
661	0.0301	19.5762
662	0.0251	16.3713
663	0.0211	13.7396
664	0.0179	11.6303
665	0.0153	9.9412
666	0.0130	8.4331
667	0.0111	7.2222
668	0.0097	6.3221
669	0.0083	5.3949
670	0.0072	4.6757
671	0.0062	4.0185
672	0.0054	3.4928
673	0.0047	3.0836
674	0.0043	2.7856
675	0.0036	2.3617
676	0.0032	2.0812
677	0.0029	1.8940
678	0.0026	1.6637
679	0.0023	1.4693
680	0.0021	1.3503
681	0.0018	1.1943
682	0.0016	1.0622
683	0.0015	0.9867
684	0.0013	0.8745
685	0.0013	0.8289
686	0.0012	0.7711
687	0.0011	0.6893
688	0.0010	0.6561
689	0.0009	0.5995
690	0.0009	0.6030
691	0.0008	0.5482
692	0.0008	0.5211
693	0.0008	0.5153
694	0.0008	0.4909
695	0.0007	0.4378
696	0.0007	0.4712
697	0.0006	0.4111
698	0.0006	0.3903
699	0.0006	0.3837
700	0.0006	0.3854
701	0.0006	0.3831
702	0.0005	0.3423
703	0.0006	0.3583
704	0.0005	0.3475
705	0.0005	0.3439
706	0.0005	0.3125
707	0.0005	0.2940
708	0.0005	0.3247
709	0.0005	0.3108
710	0.0005	0.3079
711	0.0004	0.2915
712	0.0004	0.2791
713	0.0004	0.2911
714	0.0004	0.2716
715	0.0004	0.2788
716	0.0004	0.2726
717	0.0004	0.2851
718	0.0004	0.2513
719	0.0004	0.2549
720	0.0004	0.2645
721	0.0004	0.2357
722	0.0004	0.2511
723	0.0004	0.2474
724	0.0004	0.2341
725	0.0004	0.2627
726	0.0004	0.2543
727	0.0003	0.2234
728	0.0004	0.2725
729	0.0003	0.2267
730	0.0003	0.2162
731	0.0004	0.2490
732	0.0004	0.2310
733	0.0004	0.2479
734	0.0003	0.2277
735	0.0003	0.2178
736	0.0003	0.2217
737	0.0004	0.2443
738	0.0003	0.2001
739	0.0003	0.2207
740	0.0004	0.2392
741	0.0003	0.2183
742	0.0003	0.1998
743	0.0003	0.2249
744	0.0004	0.2562
745	0.0003	0.2274
746	0.0003	0.2257
747	0.0003	0.2128
748	0.0004	0.2301
749	0.0004	0.2316
750	0.0004	0.2312
751	0.0003	0.2051
752	0.0003	0.1914
753	0.0004	0.2595
754	0.0004	0.2298
755	0.0004	0.2398
756	0.0004	0.2356
757	0.0004	0.2399
758	0.0004	0.2444
759	0.0003	0.2151
760	0.0004	0.2429
761	0.0003	0.2118
762	0.0003	0.2242
763	0.0004	0.2773
764	0.0003	0.2231
765	0.0003	0.2270
766	0.0003	0.2186
767	0.0004	0.2381
768	0.0004	0.2525
769	0.0004	0.2627
770	0.0004	0.2806
771	0.0004	0.2781
772	0.0004	0.2767
773	0.0004	0.2819
774	0.0003	0.2263
775	0.0005	0.3192
776	0.0004	0.2791
777	0.0004	0.2284
778	0.0005	0.3011
779	0.0005	0.2974
780	0.0004	0.2450
781	0.0004	0.2821
782	0.0005	0.3461
783	0.0005	0.3007
784	0.0005	0.3268
785	0.0005	0.3045
786	0.0005	0.3190
787	0.0004	0.2823
788	0.0005	0.3024
789	0.0005	0.2942
790	0.0004	0.2868
791	0.0004	0.2566
792	0.0005	0.3052
793	0.0004	0.2837
794	0.0005	0.3111
795	0.0005	0.3297
796	0.0005	0.3123
797	0.0005	0.3056
798	0.0005	0.3178
799	0.0005	0.3473
800	0.0005	0.3411
