WL(nm)	PL	PE(mW/nm)
380	0.0049	0.7268
381	0.0045	0.6677
382	0.0040	0.5967
383	0.0036	0.5406
384	0.0033	0.4853
385	0.0031	0.4584
386	0.0028	0.4100
387	0.0027	0.4017
388	0.0027	0.4028
389	0.0024	0.3577
390	0.0023	0.3387
391	0.0020	0.2955
392	0.0020	0.2904
393	0.0020	0.3015
394	0.0021	0.3053
395	0.0021	0.3097
396	0.0021	0.3066
397	0.0022	0.3191
398	0.0021	0.3181
399	0.0023	0.3374
400	0.0026	0.3787
401	0.0030	0.4471
402	0.0034	0.5005
403	0.0039	0.5807
404	0.0045	0.6663
405	0.0053	0.7819
406	0.0063	0.9399
407	0.0075	1.1134
408	0.0090	1.3290
409	0.0108	1.6097
410	0.0132	1.9595
411	0.0159	2.3597
412	0.0198	2.9398
413	0.0229	3.3966
414	0.0283	4.2049
415	0.0331	4.9152
416	0.0395	5.8626
417	0.0469	6.9563
418	0.0551	8.1713
419	0.0655	9.7250
420	0.0757	11.2330
421	0.0888	13.1760
422	0.1013	15.0377
423	0.1184	17.5714
424	0.1361	20.1961
425	0.1560	23.1499
426	0.1757	26.0744
427	0.1976	29.3262
428	0.2218	32.9078
429	0.2478	36.7778
430	0.2773	41.1446
431	0.3080	45.7096
432	0.3368	49.9835
433	0.3677	54.5608
434	0.4042	59.9866
435	0.4390	65.1491
436	0.4728	70.1666
437	0.5105	75.7566
438	0.5501	81.6311
439	0.6001	89.0479
440	0.6447	95.6637
441	0.7103	105.4114
442	0.7579	112.4655
443	0.8161	121.0997
444	0.8750	129.8392
445	0.9246	137.2029
446	0.9612	142.6374
447	0.9884	146.6746
448	1.0000	148.3959
449	0.9975	148.0210
450	0.9759	144.8162
451	0.9272	137.5977
452	0.8790	130.4332
453	0.8210	121.8352
454	0.7377	109.4654
455	0.6614	98.1542
456	0.5964	88.5083
457	0.5340	79.2493
458	0.4832	71.7053
459	0.4379	64.9888
460	0.4012	59.5291
461	0.3713	55.1026
462	0.3462	51.3725
463	0.3255	48.3089
464	0.3019	44.7980
465	0.2838	42.1105
466	0.2636	39.1120
467	0.2440	36.2039
468	0.2261	33.5534
469	0.2096	31.1019
470	0.1897	28.1555
471	0.1744	25.8804
472	0.1615	23.9629
473	0.1494	22.1708
474	0.1383	20.5296
475	0.1311	19.4552
476	0.1251	18.5600
477	0.1197	17.7696
478	0.1149	17.0453
479	0.1106	16.4061
480	0.1088	16.1389
481	0.1059	15.7196
482	0.1051	15.6004
483	0.1033	15.3270
484	0.1027	15.2466
485	0.1019	15.1182
486	0.1021	15.1439
487	0.1022	15.1627
488	0.1041	15.4522
489	0.1058	15.6983
490	0.1093	16.2168
491	0.1126	16.7168
492	0.1177	17.4671
493	0.1233	18.2922
494	0.1304	19.3556
495	0.1374	20.3935
496	0.1453	21.5680
497	0.1527	22.6533
498	0.1622	24.0661
499	0.1711	25.3936
500	0.1819	26.9938
501	0.1895	28.1243
502	0.2021	29.9917
503	0.2118	31.4296
504	0.2248	33.3520
505	0.2367	35.1252
506	0.2466	36.5949
507	0.2592	38.4674
508	0.2696	40.0040
509	0.2827	41.9448
510	0.2964	43.9789
511	0.3051	45.2740
512	0.3158	46.8668
513	0.3292	48.8564
514	0.3405	50.5247
515	0.3472	51.5216
516	0.3587	53.2260
517	0.3693	54.8047
518	0.3800	56.3853
519	0.3898	57.8502
520	0.3966	58.8502
521	0.4046	60.0341
522	0.4129	61.2669
523	0.4179	62.0214
524	0.4301	63.8279
525	0.4351	64.5665
526	0.4427	65.6929
527	0.4446	65.9695
528	0.4524	67.1373
529	0.4575	67.8892
530	0.4593	68.1638
531	0.4667	69.2562
532	0.4712	69.9234
533	0.4734	70.2451
534	0.4783	70.9817
535	0.4781	70.9433
536	0.4798	71.1964
537	0.4871	72.2880
538	0.4913	72.9047
539	0.4898	72.6810
540	0.4904	72.7776
541	0.4963	73.6445
542	0.4924	73.0703
543	0.4925	73.0906
544	0.4936	73.2442
545	0.4994	74.1053
546	0.4976	73.8357
547	0.4981	73.9195
548	0.4984	73.9639
549	0.4963	73.6551
550	0.5003	74.2477
551	0.4988	74.0212
552	0.4968	73.7305
553	0.4982	73.9289
554	0.4948	73.4215
555	0.4971	73.7698
556	0.4943	73.3574
557	0.4930	73.1532
558	0.4925	73.0919
559	0.4975	73.8315
560	0.4881	72.4334
561	0.4876	72.3554
562	0.4865	72.1921
563	0.4826	71.6163
564	0.4869	72.2486
565	0.4816	71.4707
566	0.4842	71.8601
567	0.4793	71.1241
568	0.4802	71.2643
569	0.4762	70.6657
570	0.4761	70.6458
571	0.4732	70.2157
572	0.4720	70.0415
573	0.4683	69.4951
574	0.4679	69.4399
575	0.4646	68.9397
576	0.4613	68.4601
577	0.4594	68.1799
578	0.4566	67.7513
579	0.4523	67.1168
580	0.4506	66.8615
581	0.4474	66.3932
582	0.4419	65.5730
583	0.4407	65.3978
584	0.4367	64.8066
585	0.4305	63.8884
586	0.4301	63.8225
587	0.4245	62.9887
588	0.4223	62.6725
589	0.4170	61.8785
590	0.4133	61.3359
591	0.4106	60.9360
592	0.4063	60.2954
593	0.4017	59.6134
594	0.3982	59.0925
595	0.3940	58.4621
596	0.3897	57.8344
597	0.3856	57.2176
598	0.3813	56.5760
599	0.3781	56.1135
600	0.3727	55.3109
601	0.3685	54.6817
602	0.3653	54.2153
603	0.3560	52.8300
604	0.3547	52.6342
605	0.3516	52.1718
606	0.3454	51.2615
607	0.3426	50.8444
608	0.3369	50.0009
609	0.3323	49.3169
610	0.3291	48.8402
611	0.3241	48.0925
612	0.3183	47.2387
613	0.3144	46.6568
614	0.3088	45.8235
615	0.3048	45.2272
616	0.3008	44.6418
617	0.2933	43.5245
618	0.2922	43.3598
619	0.2877	42.6961
620	0.2827	41.9466
621	0.2780	41.2518
622	0.2724	40.4191
623	0.2691	39.9346
624	0.2657	39.4342
625	0.2605	38.6506
626	0.2564	38.0424
627	0.2504	37.1654
628	0.2449	36.3388
629	0.2404	35.6787
630	0.2387	35.4209
631	0.2334	34.6374
632	0.2303	34.1756
633	0.2248	33.3549
634	0.2204	32.7026
635	0.2164	32.1202
636	0.2112	31.3391
637	0.2090	31.0117
638	0.2025	30.0495
639	0.2012	29.8553
640	0.1970	29.2334
641	0.1920	28.4870
642	0.1879	27.8909
643	0.1848	27.4254
644	0.1812	26.8842
645	0.1785	26.4867
646	0.1733	25.7103
647	0.1715	25.4493
648	0.1682	24.9670
649	0.1639	24.3249
650	0.1619	24.0195
651	0.1594	23.6488
652	0.1530	22.7116
653	0.1516	22.4941
654	0.1467	21.7699
655	0.1429	21.2030
656	0.1399	20.7671
657	0.1377	20.4268
658	0.1348	20.0038
659	0.1314	19.4981
660	0.1274	18.9004
661	0.1252	18.5739
662	0.1207	17.9069
663	0.1191	17.6788
664	0.1167	17.3205
665	0.1121	16.6331
666	0.1105	16.3932
667	0.1084	16.0798
668	0.1066	15.8126
669	0.1033	15.3244
670	0.1008	14.9611
671	0.0983	14.5876
672	0.0968	14.3635
673	0.0950	14.0940
674	0.0926	13.7450
675	0.0910	13.5085
676	0.0883	13.1025
677	0.0856	12.7094
678	0.0844	12.5293
679	0.0813	12.0616
680	0.0796	11.8081
681	0.0774	11.4892
682	0.0767	11.3830
683	0.0742	11.0087
684	0.0728	10.8054
685	0.0705	10.4547
686	0.0693	10.2885
687	0.0677	10.0455
688	0.0664	9.8589
689	0.0640	9.5009
690	0.0630	9.3459
691	0.0610	9.0456
692	0.0593	8.7958
693	0.0584	8.6614
694	0.0561	8.3289
695	0.0547	8.1244
696	0.0538	7.9792
697	0.0528	7.8341
698	0.0519	7.6960
699	0.0501	7.4415
700	0.0491	7.2873
701	0.0480	7.1293
702	0.0464	6.8796
703	0.0452	6.7009
704	0.0442	6.5550
705	0.0428	6.3519
706	0.0414	6.1479
707	0.0404	5.9903
708	0.0395	5.8663
709	0.0389	5.7705
710	0.0378	5.6026
711	0.0368	5.4680
712	0.0355	5.2752
713	0.0354	5.2473
714	0.0343	5.0966
715	0.0330	4.8984
716	0.0324	4.8124
717	0.0314	4.6578
718	0.0312	4.6249
719	0.0302	4.4784
720	0.0294	4.3600
721	0.0284	4.2120
722	0.0280	4.1503
723	0.0273	4.0505
724	0.0259	3.8410
725	0.0258	3.8267
726	0.0248	3.6821
727	0.0241	3.5802
728	0.0244	3.6201
729	0.0232	3.4409
730	0.0230	3.4184
731	0.0222	3.2875
732	0.0210	3.1151
733	0.0207	3.0787
734	0.0208	3.0847
735	0.0203	3.0127
736	0.0192	2.8426
737	0.0196	2.9078
738	0.0185	2.7518
739	0.0175	2.5902
740	0.0175	2.5999
741	0.0176	2.6122
742	0.0157	2.3367
743	0.0161	2.3878
744	0.0155	2.2998
745	0.0150	2.2317
746	0.0150	2.2310
747	0.0145	2.1561
748	0.0142	2.1038
749	0.0140	2.0717
750	0.0138	2.0499
751	0.0133	1.9736
752	0.0130	1.9252
753	0.0131	1.9448
754	0.0121	1.7927
755	0.0122	1.8151
756	0.0117	1.7359
757	0.0113	1.6817
758	0.0108	1.6083
759	0.0108	1.6070
760	0.0107	1.5904
761	0.0102	1.5103
762	0.0096	1.4209
763	0.0101	1.4956
764	0.0097	1.4422
765	0.0097	1.4341
766	0.0091	1.3488
767	0.0083	1.2321
768	0.0082	1.2210
769	0.0088	1.3115
770	0.0079	1.1790
771	0.0080	1.1908
772	0.0077	1.1472
773	0.0079	1.1692
774	0.0074	1.0988
775	0.0074	1.1007
776	0.0072	1.0615
777	0.0072	1.0638
778	0.0070	1.0451
779	0.0067	0.9871
780	0.0060	0.8910
781	0.0061	0.9016
782	0.0067	0.9991
783	0.0065	0.9582
784	0.0061	0.8998
785	0.0061	0.9048
786	0.0056	0.8296
787	0.0052	0.7667
788	0.0055	0.8187
789	0.0054	0.8035
790	0.0055	0.8226
791	0.0054	0.7948
792	0.0051	0.7535
793	0.0046	0.6784
794	0.0047	0.6912
795	0.0048	0.7186
796	0.0044	0.6555
797	0.0044	0.6518
798	0.0044	0.6517
799	0.0041	0.6122
800	0.0036	0.5394
